/*--------------------------------*- C++ -*----------------------------------*\
  =========                 |
  \\      /  F ield         | OpenFOAM: The Open Source CFD Toolbox
   \\    /   O peration     | Website:  https://openfoam.org
    \\  /    A nd           | Version:  7
     \\/     M anipulation  |
\*---------------------------------------------------------------------------*/
FoamFile
{
    version     2.0;
    format      ascii;
    class       volScalarField;
    location    "9e-13/dielectric";
    object      voltD;
}
// * * * * * * * * * * * * * * * * * * * * * * * * * * * * * * * * * * * * * //

dimensions      [1 2 -3 0 0 -1 0];

internalField   nonuniform List<scalar> 
5027
(
8.64851
8.52493
8.39984
8.27338
8.14573
8.01707
7.88755
7.75736
7.62666
7.49563
7.36443
7.23324
7.10221
6.9715
6.84126
6.71164
6.58277
6.4548
6.32783
6.202
6.0774
5.95415
5.83232
5.71201
5.5933
5.47625
5.36092
5.24737
5.13565
5.02579
4.91783
4.8118
4.70772
4.60561
4.50547
4.40731
4.31113
4.21694
4.12472
4.03447
3.94617
3.85981
3.77537
3.69282
3.61215
3.53334
3.45634
3.38115
3.30772
3.23603
3.16605
3.09774
3.03108
2.96603
2.90257
2.84064
2.78024
2.72131
2.66383
2.60777
2.55309
2.49976
2.44775
2.39703
2.34756
2.29932
2.25228
2.2064
2.16165
2.11801
2.07545
2.03395
1.99346
1.95398
1.91546
1.8779
1.84125
1.8055
1.77063
1.7366
1.70341
1.67102
1.63941
1.60857
1.57847
1.5491
1.52043
1.49244
1.46513
1.43846
1.41242
1.387
1.36218
1.33794
1.31427
1.29115
1.26857
1.24651
1.22497
1.20391
1.18334
1.16325
1.14361
1.12441
25.9472
25.5763
25.2009
24.8213
24.4382
24.052
23.6633
23.2726
22.8803
22.487
22.0933
21.6995
21.3063
20.914
20.5232
20.1342
19.7474
19.3634
18.9824
18.6048
18.2309
17.861
17.4955
17.1345
16.7782
16.427
16.081
15.7403
15.4051
15.0755
14.7516
14.4335
14.1212
13.8148
13.5144
13.2199
12.9314
12.6488
12.3722
12.1015
11.8366
11.5775
11.3242
11.0766
10.8346
10.5982
10.3672
10.1417
9.92142
9.70638
9.49646
9.29158
9.09163
8.89652
8.70615
8.52042
8.33923
8.16249
7.99009
7.82193
7.65793
7.49797
7.34197
7.18984
7.04147
6.89677
6.75566
6.61805
6.48384
6.35296
6.22531
6.10081
5.97939
5.86096
5.74544
5.63277
5.52285
5.41563
5.31103
5.20898
5.10941
5.01226
4.91747
4.82497
4.73469
4.64659
4.5606
4.47666
4.39473
4.31474
4.23665
4.16041
4.08596
4.01326
3.94226
3.87292
3.80519
3.73903
3.6744
3.61126
3.54956
3.48928
3.43037
3.37281
43.2509
42.6323
42.006
41.3729
40.7338
40.0896
39.4411
38.7893
38.135
37.479
36.8221
36.1654
35.5094
34.8551
34.2032
33.5544
32.9094
32.2689
31.6335
31.0038
30.3803
29.7636
29.154
28.5521
27.9582
27.3726
26.7957
26.2277
25.6689
25.1195
24.5795
24.0493
23.5288
23.0181
22.5174
22.0266
21.5458
21.0748
20.6138
20.1626
19.7212
19.2895
18.8674
18.4547
18.0515
17.6576
17.2727
16.8969
16.5299
16.1716
15.8219
15.4805
15.1473
14.8223
14.5051
14.1957
13.8938
13.5993
13.3121
13.0319
12.7587
12.4922
12.2323
11.9789
11.7317
11.4906
11.2556
11.0263
10.8027
10.5847
10.372
10.1646
9.96233
9.76503
9.57259
9.38487
9.20176
9.02314
8.84888
8.67887
8.513
8.35116
8.19324
8.03913
7.88874
7.74197
7.59871
7.45888
7.32239
7.18914
7.05904
6.93202
6.808
6.68688
6.5686
6.45308
6.34025
6.23003
6.12235
6.01716
5.91437
5.81394
5.7158
5.61992
60.5631
59.6958
58.8179
57.9303
57.0344
56.1314
55.2223
54.3085
53.3913
52.4717
51.551
50.6303
49.7109
48.7938
47.8801
46.9708
46.0669
45.1694
44.279
43.3966
42.523
41.6589
40.805
39.9617
39.1298
38.3096
37.5015
36.706
35.9234
35.1539
34.3978
33.6553
32.9265
32.2116
31.5105
30.8234
30.1502
29.4909
28.8455
28.2139
27.5961
26.9918
26.401
25.8235
25.2592
24.7078
24.1692
23.6433
23.1297
22.6283
22.1389
21.6612
21.195
20.7401
20.2963
19.8633
19.4409
19.0289
18.627
18.235
17.8527
17.4799
17.1163
16.7616
16.4158
16.0785
15.7496
15.4289
15.1161
14.811
14.5135
14.2233
13.9403
13.6642
13.395
13.1324
12.8762
12.6263
12.3825
12.1446
11.9126
11.6861
11.4652
11.2496
11.0392
10.8338
10.6334
10.4378
10.2468
10.0604
9.87836
9.70065
9.52712
9.35767
9.19218
9.03055
8.87269
8.71848
8.56783
8.42064
8.27684
8.13631
7.99899
7.86483
77.8871
76.7701
75.6393
74.4962
73.3423
72.1791
71.0082
69.8313
68.6499
67.4655
66.2797
65.0941
63.9101
62.7292
61.5526
60.3819
59.2181
58.0626
56.9164
55.7806
54.6563
53.5442
52.4452
51.3601
50.2896
49.2343
48.1948
47.1714
46.1647
45.175
44.2026
43.2476
42.3104
41.3911
40.4896
39.6061
38.7407
37.8931
37.0635
36.2516
35.4574
34.6807
33.9213
33.1791
32.4538
31.7453
31.0531
30.3772
29.7173
29.073
28.4441
27.8303
27.2314
26.6469
26.0767
25.5204
24.9777
24.4484
23.9321
23.4285
22.9373
22.4583
21.9912
21.5356
21.0913
20.6581
20.2356
19.8235
19.4217
19.0298
18.6476
18.2748
17.9113
17.5567
17.2108
16.8734
16.5444
16.2233
15.9101
15.6046
15.3065
15.0156
14.7318
14.4549
14.1846
13.9208
13.6633
13.412
13.1667
12.9272
12.6934
12.4651
12.2422
12.0245
11.8119
11.6043
11.4015
11.2034
11.0098
10.8208
10.636
10.4555
10.2791
10.1067
95.2264
93.8583
92.4732
91.0729
89.6594
88.2345
86.8002
85.3586
83.9114
82.4607
81.0084
79.5563
78.1062
76.66
75.2194
73.7859
72.3611
70.9465
69.5435
68.1533
66.7772
65.4163
64.0715
62.7439
61.4343
60.1433
58.8718
57.6202
56.389
55.1788
53.9898
52.8223
51.6765
50.5526
49.4508
48.371
47.3132
46.2775
45.2636
44.2716
43.3012
42.3522
41.4245
40.5178
39.6318
38.7663
37.9209
37.0953
36.2892
35.5023
34.7343
33.9847
33.2532
32.5395
31.8432
31.1638
30.5012
29.8548
29.2244
28.6095
28.0098
27.4249
26.8545
26.2983
25.7559
25.2269
24.711
24.2079
23.7173
23.2389
22.7722
22.3171
21.8733
21.4404
21.0181
20.6062
20.2045
19.8125
19.4302
19.0572
18.6932
18.3381
17.9916
17.6534
17.3235
17.0014
16.6871
16.3802
16.0807
15.7883
15.5029
15.2242
14.952
14.6862
14.4267
14.1732
13.9256
13.6837
13.4474
13.2165
12.991
12.7706
12.5552
12.3446
112.584
110.963
109.322
107.663
105.988
104.299
102.6
100.891
99.1765
97.4575
95.7367
94.0164
92.2985
90.5854
88.879
87.1812
85.4939
83.8188
82.1577
80.5119
78.883
77.2722
75.6807
74.1098
72.5602
71.033
69.5289
68.0485
66.5925
65.1613
63.7554
62.3751
61.0207
59.6922
58.3899
57.1137
55.8638
54.6399
53.442
52.2699
51.1235
50.0026
48.9067
47.8357
46.7893
45.7671
44.7687
43.7938
42.842
41.9129
41.006
40.1209
39.2573
38.4147
37.5926
36.7906
36.0084
35.2453
34.5011
33.7753
33.0674
32.377
31.7038
31.0472
30.407
29.7826
29.1737
28.5799
28.0008
27.4361
26.8854
26.3482
25.8244
25.3134
24.815
24.3289
23.8547
23.3922
22.9409
22.5006
22.0711
21.652
21.243
20.8439
20.4544
20.0743
19.7033
19.3412
18.9877
18.6426
18.3056
17.9767
17.6554
17.3417
17.0354
16.7362
16.4439
16.1584
15.8795
15.607
15.3408
15.0806
14.8264
14.5779
129.965
128.089
126.189
124.269
122.33
120.375
118.408
116.43
114.446
112.456
110.465
108.474
106.486
104.504
102.53
100.566
98.6145
96.6773
94.7564
92.8536
90.9706
89.1087
87.2695
85.4542
83.6639
81.8996
80.1622
78.4525
76.7711
75.1186
73.4956
71.9022
70.3388
68.8057
67.3028
65.8304
64.3882
62.9763
61.5945
60.2426
58.9205
57.6277
56.3641
55.1292
53.9226
52.7441
51.5931
50.4693
49.3721
48.3011
47.2558
46.2358
45.2404
44.2693
43.3219
42.3978
41.4963
40.617
39.7595
38.9231
38.1075
37.312
36.5363
35.7799
35.0422
34.3228
33.6213
32.9372
32.27
31.6194
30.9849
30.3661
29.7625
29.1739
28.5997
28.0397
27.4934
26.9605
26.4406
25.9334
25.4385
24.9557
24.4845
24.0247
23.576
23.1381
22.7107
22.2935
21.8862
21.4886
21.1005
20.7214
20.3513
19.9899
19.637
19.2922
18.9555
18.6266
18.3053
17.9913
17.6845
17.3848
17.0919
16.8055
147.371
145.238
143.077
140.893
138.687
136.464
134.226
131.977
129.72
127.457
125.192
122.928
120.668
118.415
116.171
113.938
111.721
109.519
107.337
105.176
103.037
100.923
98.8344
96.7736
94.7415
92.7392
90.7678
88.8281
86.9208
85.0466
83.2059
81.3992
79.6268
77.8888
76.1854
74.5166
72.8824
71.2826
69.7171
68.1857
66.688
65.2238
63.7927
62.3942
61.028
59.6936
58.3904
57.1181
55.876
54.6637
53.4805
52.3259
51.1993
50.1003
49.0281
47.9822
46.9621
45.9671
44.9967
44.0503
43.1274
42.2273
41.3496
40.4937
39.6591
38.8452
38.0515
37.2775
36.5227
35.7866
35.0687
34.3687
33.6858
33.0199
32.3703
31.7367
31.1187
30.5158
29.9276
29.3538
28.794
28.2477
27.7147
27.1945
26.6869
26.1914
25.7079
25.2359
24.7751
24.3253
23.8861
23.4573
23.0386
22.6297
22.2304
21.8403
21.4593
21.0872
20.7236
20.3684
20.0213
19.6821
19.3507
19.0268
164.808
162.414
159.989
157.537
155.062
152.567
150.056
147.532
144.999
142.46
139.919
137.379
134.844
132.316
129.799
127.297
124.81
122.343
119.897
117.475
115.079
112.711
110.372
108.064
105.789
103.548
101.342
99.1713
97.0375
94.941
92.8824
90.8621
88.8803
86.9374
85.0334
83.1684
81.3422
79.5547
77.8057
76.0949
74.4221
72.7868
71.1886
69.627
68.1016
66.6117
65.157
63.7367
62.3502
60.9971
59.6765
58.388
57.1308
55.9043
54.7079
53.5409
52.4027
51.2925
50.2099
49.154
48.1244
47.1203
46.1411
45.1863
44.2553
43.3473
42.462
41.5986
40.7566
39.9356
39.1349
38.3539
37.5923
36.8495
36.125
35.4182
34.7289
34.0564
33.4003
32.7603
32.1358
31.5265
30.932
30.3518
29.7855
29.2329
28.6935
28.167
27.6531
27.1513
26.6614
26.1831
25.716
25.2599
24.8144
24.3793
23.9543
23.5392
23.1336
22.7373
22.3501
21.9718
21.602
21.2407
182.278
179.62
176.928
174.206
171.458
168.687
165.899
163.096
160.283
157.465
154.644
151.825
149.011
146.207
143.415
140.638
137.881
135.145
132.433
129.748
127.093
124.469
121.878
119.322
116.803
114.322
111.88
109.478
107.117
104.797
102.521
100.286
98.0951
95.9471
93.8425
91.7812
89.7632
87.7882
85.856
83.9663
82.1187
80.3127
78.5479
76.8237
75.1396
73.4949
71.889
70.3214
68.7912
67.2978
65.8406
64.4187
63.0315
61.6783
60.3583
59.0709
57.8152
56.5905
55.3962
54.2315
53.0958
51.9883
50.9083
49.8552
48.8283
47.8269
46.8505
45.8983
44.9697
44.0642
43.1812
42.3199
41.48
40.6608
39.8618
39.0824
38.3222
37.5806
36.8571
36.1512
35.4625
34.7906
34.1349
33.495
32.8706
32.2612
31.6663
31.0856
30.5188
29.9654
29.4252
28.8976
28.3825
27.8794
27.3881
26.9083
26.4395
25.9816
25.5343
25.0972
24.6701
24.2528
23.8449
23.4464
199.785
196.86
193.897
190.9
187.875
184.825
181.755
178.67
175.574
172.472
169.367
166.265
163.17
160.085
157.014
153.961
150.929
147.922
144.942
141.993
139.076
136.194
133.35
130.544
127.779
125.057
122.378
119.743
117.154
114.612
112.116
109.667
107.267
104.913
102.608
100.351
98.1412
95.979
93.8639
91.7956
89.7736
87.7975
85.8666
83.9803
82.1381
80.3392
78.5829
76.8686
75.1953
73.5625
71.9692
70.4148
68.8984
67.4191
65.9763
64.5691
63.1966
61.8582
60.553
59.2802
58.039
56.8288
55.6487
54.4979
53.3758
52.2817
51.2148
50.1744
49.1598
48.1704
47.2056
46.2647
45.347
44.452
43.579
42.7275
41.8969
41.0866
40.2962
39.525
38.7726
38.0384
37.322
36.6229
35.9407
35.2748
34.6249
33.9905
33.3711
32.7665
32.1762
31.5998
31.0369
30.4873
29.9504
29.4261
28.9139
28.4136
27.9247
27.4471
26.9804
26.5244
26.0787
25.6431
217.335
214.138
210.899
207.624
204.317
200.983
197.627
194.255
190.871
187.481
184.089
180.7
177.318
173.949
170.596
167.263
163.954
160.672
157.421
154.204
151.024
147.882
144.782
141.725
138.713
135.748
132.831
129.963
127.146
124.379
121.664
119.001
116.39
113.832
111.326
108.873
106.472
104.123
101.825
99.5786
97.3828
95.237
93.1406
91.0929
89.0933
87.1409
85.2349
83.3746
81.5591
79.7876
78.0591
76.3729
74.728
73.1235
71.5586
70.0325
68.5441
67.0927
65.6773
64.2972
62.9514
61.6391
60.3596
59.112
57.8954
56.7092
55.5525
54.4246
53.3247
52.2522
51.2062
50.1862
49.1913
48.2211
47.2747
46.3516
45.4512
44.5729
43.716
42.88
42.0643
41.2685
40.4919
39.734
38.9944
38.2725
37.568
36.8802
36.2088
35.5533
34.9133
34.2884
33.6782
33.0823
32.5002
31.9318
31.3765
30.834
30.304
29.7861
29.2801
28.7856
28.3024
27.83
234.931
231.457
227.938
224.379
220.785
217.162
213.516
209.851
206.175
202.491
198.807
195.126
191.454
187.796
184.157
180.54
176.95
173.391
169.866
166.379
162.932
159.529
156.171
152.861
149.6
146.391
143.235
140.133
137.086
134.095
131.16
128.282
125.461
122.698
119.992
117.343
114.75
112.215
109.735
107.311
104.942
102.627
100.366
98.1576
96.0013
93.8961
91.8413
89.8359
87.879
85.9696
84.1068
82.2896
80.5171
78.7884
77.1023
75.4581
73.8546
72.2911
70.7664
69.2798
67.8302
66.4168
65.0387
63.695
62.3847
61.1072
59.8615
58.6468
57.4623
56.3073
55.1809
54.0824
53.0111
51.9663
50.9472
49.9532
48.9836
48.0377
47.1149
46.2147
45.3363
44.4793
43.643
42.8269
42.0304
41.253
40.4943
39.7536
39.0305
38.3246
37.6354
36.9624
36.3052
35.6634
35.0365
34.4243
33.8262
33.2419
32.6711
32.1133
31.5683
31.0357
30.5152
30.0063
252.578
248.823
245.018
241.169
237.283
233.365
229.422
225.46
221.485
217.503
213.521
209.544
205.577
201.626
197.695
193.791
189.916
186.076
182.274
178.513
174.798
171.13
167.512
163.947
160.436
156.982
153.585
150.248
146.971
143.754
140.599
137.506
134.475
131.507
128.6
125.755
122.972
120.251
117.589
114.988
112.447
109.964
107.538
105.17
102.858
100.601
98.3983
96.2487
94.1513
92.105
90.1088
88.1617
86.2626
84.4105
82.6042
80.8429
79.1253
77.4506
75.8176
74.2254
72.6729
71.1593
69.6834
68.2444
66.8414
65.4734
64.1395
62.8388
61.5705
60.3338
59.1277
57.9515
56.8045
55.6858
54.5946
53.5303
52.4921
51.4794
50.4914
49.5275
48.5871
47.6694
46.774
45.9001
45.0473
44.2149
43.4025
42.6094
41.8351
41.0793
40.3412
39.6206
38.9168
38.2296
37.5583
36.9026
36.2621
35.6364
35.0251
34.4278
33.8441
33.2737
32.7162
32.1713
270.28
266.237
262.141
257.997
253.812
249.593
245.347
241.081
236.802
232.516
228.23
223.951
219.683
215.434
211.208
207.012
202.848
198.723
194.64
190.603
186.615
182.68
178.8
174.978
171.215
167.514
163.876
160.303
156.795
153.352
149.977
146.668
143.427
140.253
137.147
134.107
131.133
128.226
125.384
122.606
119.893
117.242
114.654
112.127
109.66
107.252
104.902
102.609
100.372
98.1903
96.0618
93.9858
91.9612
89.9867
88.0613
86.1839
84.3532
82.5683
80.828
79.1312
77.4768
75.8639
74.2913
72.758
71.2631
69.8055
68.3843
66.9985
65.6472
64.3296
63.0446
61.7916
60.5695
59.3777
58.2152
57.0813
55.9753
54.8964
53.8438
52.8169
51.815
50.8373
49.8833
48.9523
48.0437
47.1569
46.2913
45.4463
44.6214
43.8161
43.0297
42.2619
41.512
40.7797
40.0645
39.3658
38.6833
38.0166
37.3652
36.7286
36.1066
35.4988
34.9047
34.324
288.043
283.707
279.312
274.865
270.375
265.848
261.293
256.716
252.126
247.529
242.933
238.345
233.772
229.219
224.693
220.199
215.742
211.328
206.96
202.643
198.381
194.176
190.031
185.95
181.933
177.984
174.103
170.292
166.552
162.884
159.287
155.763
152.312
148.933
145.626
142.392
139.228
136.136
133.114
130.161
127.276
124.459
121.708
119.023
116.402
113.845
111.349
108.914
106.539
104.222
101.962
99.7586
97.6095
95.5139
93.4705
91.4781
89.5355
87.6415
85.7949
83.9946
82.2394
80.5282
78.8598
77.2333
75.6474
74.1012
72.5936
71.1236
69.6903
68.2927
66.9297
65.6006
64.3044
63.0402
61.8072
60.6046
59.4314
58.287
57.1706
56.0814
55.0186
53.9816
52.9697
51.9822
51.0184
50.0778
49.1596
48.2633
47.3882
46.5339
45.6997
44.8852
44.0897
43.3129
42.5541
41.8129
41.0888
40.3815
39.6903
39.015
38.3551
37.7101
37.0798
36.4636
305.871
301.234
296.534
291.778
286.975
282.132
277.26
272.365
267.456
262.541
257.629
252.726
247.839
242.977
238.145
233.348
228.594
223.886
219.23
214.629
210.089
205.611
201.199
196.856
192.584
188.385
184.26
180.211
176.238
172.343
168.525
164.785
161.124
157.54
154.034
150.605
147.252
143.976
140.774
137.646
134.592
131.609
128.697
125.855
123.082
120.375
117.735
115.159
112.647
110.197
107.807
105.477
103.204
100.989
98.8286
96.7225
94.6691
92.6672
90.7156
88.8129
86.958
85.1496
83.3866
81.6678
79.9921
78.3583
76.7654
75.2122
73.6978
72.2211
70.781
69.3768
68.0073
66.6716
65.3689
64.0983
62.8588
61.6497
60.4702
59.3194
58.1965
57.1009
56.0317
54.9884
53.9701
52.9761
52.006
51.0589
50.1343
49.2316
48.3501
47.4894
46.6489
45.8279
45.0261
44.2428
43.4777
42.7301
41.9997
41.286
40.5886
39.9069
39.2407
38.5895
323.771
318.826
313.812
308.738
303.613
298.447
293.249
288.027
282.792
277.551
272.314
267.089
261.884
256.705
251.56
246.456
241.398
236.392
231.443
226.556
221.733
216.98
212.299
207.692
203.162
198.712
194.341
190.053
185.847
181.724
177.685
173.73
169.858
166.07
162.365
158.742
155.201
151.741
148.36
145.059
141.835
138.688
135.617
132.619
129.694
126.84
124.056
121.341
118.693
116.111
113.592
111.137
108.743
106.408
104.133
101.914
99.7513
97.6428
95.5873
93.5835
91.63
89.7257
87.8692
86.0593
84.2948
82.5746
80.8973
79.262
77.6675
76.1128
74.5966
73.1182
71.6763
70.2701
68.8986
67.5608
66.2559
64.9829
63.741
62.5294
61.3472
60.1937
59.068
57.9695
56.8973
55.8508
54.8293
53.8321
52.8585
51.908
50.9799
50.0735
49.1884
48.3239
47.4795
46.6547
45.8489
45.0617
44.2924
43.5408
42.8062
42.0883
41.3867
40.7009
341.749
336.486
331.15
325.749
320.293
314.794
309.26
303.703
298.133
292.558
286.988
281.433
275.901
270.399
264.936
259.518
254.151
248.842
243.596
238.417
233.309
228.277
223.323
218.451
213.662
208.958
204.341
199.812
195.372
191.022
186.761
182.59
178.509
174.516
170.613
166.797
163.068
159.426
155.868
152.394
149.002
145.692
142.462
139.31
136.235
133.235
130.309
127.456
124.673
121.96
119.315
116.736
114.221
111.77
109.38
107.05
104.779
102.565
100.407
98.3037
96.253
94.254
92.3052
90.4055
88.5534
86.7478
84.9874
83.2711
81.5976
79.9658
78.3746
76.8229
75.3097
73.8339
72.3945
70.9905
69.621
68.285
66.9816
65.71
64.4693
63.2586
62.0772
60.9242
59.7989
58.7005
57.6283
56.5816
55.5598
54.562
53.5878
52.6364
51.7073
50.7998
49.9134
49.0476
48.2017
47.3752
46.5676
45.7785
45.0073
44.2536
43.5169
42.7968
359.81
354.221
348.552
342.814
337.017
331.174
325.296
319.394
313.478
307.559
301.648
295.754
289.887
284.055
278.266
272.527
266.846
261.229
255.68
250.206
244.81
239.495
234.267
229.126
224.075
219.117
214.253
209.483
204.809
200.23
195.748
191.361
187.07
182.875
178.773
174.765
170.85
167.026
163.292
159.646
156.088
152.616
149.229
145.924
142.7
139.556
136.49
133.5
130.585
127.742
124.971
122.27
119.636
117.069
114.567
112.127
109.75
107.432
105.173
102.971
100.824
98.732
96.6923
94.7039
92.7656
90.8758
89.0335
87.2373
85.4859
83.7783
82.1131
80.4893
78.9057
77.3613
75.855
74.3857
72.9526
71.5545
70.1905
68.8598
67.5613
66.2943
65.0579
63.8513
62.6735
61.524
60.4019
59.3064
58.2369
57.1926
56.1729
55.1771
54.2046
53.2547
52.3269
51.4205
50.535
49.6698
48.8244
47.9983
47.1909
46.4018
45.6305
44.8766
377.962
372.036
366.023
359.936
353.788
347.59
341.356
335.097
328.825
322.553
316.29
310.049
303.838
297.668
291.546
285.48
279.478
273.547
267.691
261.917
256.228
250.629
245.122
239.711
234.397
229.183
224.07
219.058
214.149
209.342
204.638
200.037
195.537
191.138
186.84
182.641
178.54
174.535
170.626
166.811
163.088
159.456
155.913
152.457
149.086
145.799
142.594
139.469
136.423
133.453
130.558
127.736
124.985
122.304
119.69
117.143
114.66
112.24
109.882
107.583
105.342
103.157
101.028
98.9524
96.929
94.9565
93.0335
91.1586
89.3306
87.5482
85.8102
84.1154
82.4626
80.8506
79.2784
77.7449
76.2491
74.7898
73.3662
71.9772
70.622
69.2995
68.0089
66.7494
65.5201
64.3201
63.1488
62.0052
60.8888
59.7986
58.7341
57.6945
56.6792
55.6876
54.7189
53.7725
52.848
51.9447
51.062
50.1994
49.3563
48.5324
47.7269
46.9396
396.212
389.936
383.568
377.121
370.608
364.043
357.44
350.813
344.174
337.536
330.912
324.313
317.749
311.232
304.769
298.369
292.04
285.789
279.621
273.542
267.557
261.669
255.882
250.198
244.619
239.148
233.785
228.531
223.386
218.352
213.426
208.61
203.902
199.302
194.808
190.419
186.133
181.95
177.868
173.884
169.998
166.207
162.51
158.904
155.388
151.96
148.618
145.36
142.185
139.089
136.072
133.131
130.264
127.471
124.748
122.094
119.508
116.987
114.531
112.136
109.802
107.527
105.31
103.149
101.042
98.9877
96.9853
95.0331
93.1297
91.2738
89.4642
87.6995
85.9786
84.3002
82.6632
81.0665
79.509
77.9896
76.5072
75.061
73.6498
72.2727
70.9289
69.6173
68.3372
67.0877
65.8679
64.677
63.5143
62.379
61.2704
60.1877
59.1303
58.0974
57.0885
56.1028
55.1399
54.1989
53.2795
52.3809
51.5027
50.6444
49.8054
414.567
407.93
401.193
394.371
387.48
380.534
373.549
366.54
359.521
352.506
345.509
338.541
331.615
324.741
317.928
311.187
304.524
297.947
291.462
285.074
278.789
272.609
266.538
260.58
254.734
249.004
243.391
237.894
232.514
227.252
222.106
217.075
212.16
207.359
202.67
198.093
193.624
189.264
185.01
180.86
176.812
172.864
169.015
165.262
161.602
158.035
154.558
151.169
147.866
144.647
141.509
138.451
