/*--------------------------------*- C++ -*----------------------------------*\
  =========                 |
  \\      /  F ield         | OpenFOAM: The Open Source CFD Toolbox
   \\    /   O peration     | Website:  https://openfoam.org
    \\  /    A nd           | Version:  7
     \\/     M anipulation  |
\*---------------------------------------------------------------------------*/
FoamFile
{
    version     2.0;
    format      ascii;
    class       volScalarField;
    location    "2e-13/dielectric";
    object      voltDext;
}
// * * * * * * * * * * * * * * * * * * * * * * * * * * * * * * * * * * * * * //

dimensions      [1 2 -3 0 0 -1 0];

internalField   nonuniform List<scalar> 
5050
(
11.9797
11.9796
11.9795
11.9792
11.9789
11.9785
11.978
11.9774
11.9768
11.976
11.9752
11.9742
11.9732
11.972
11.9708
11.9694
11.9679
11.9663
11.9645
11.9626
11.9606
11.9584
11.956
11.9535
11.9508
11.9479
11.9448
11.9415
11.938
11.9342
11.9302
11.9259
11.9213
11.9164
11.9112
11.9057
11.8998
11.8935
11.8869
11.8798
11.8722
11.8642
11.8557
11.8466
11.837
11.8267
11.8159
11.8043
11.7921
11.779
11.7652
11.7506
11.7351
11.7186
11.7012
11.6827
11.6631
11.6424
11.6205
11.5973
11.5727
11.5468
11.5194
11.4905
11.4599
11.4277
11.3937
11.3578
11.3201
11.2804
11.2386
11.1947
11.1485
11.1001
11.0493
10.996
10.9403
10.8819
10.8209
10.7573
10.6908
10.6216
10.5495
10.4746
10.3967
10.3159
10.2322
10.1455
10.0559
9.9634
9.86801
9.76979
9.66878
9.56504
9.45867
9.34973
9.23833
9.12458
9.00859
8.89049
35.9392
35.939
35.9385
35.9378
35.9368
35.9356
35.9341
35.9324
35.9304
35.9281
35.9256
35.9228
35.9196
35.9162
35.9124
35.9083
35.9038
35.8989
35.8937
35.888
35.8819
35.8753
35.8683
35.8607
35.8526
35.844
35.8347
35.8248
35.8142
35.8029
35.7908
35.778
35.7643
35.7496
35.7341
35.7175
35.6998
35.681
35.6611
35.6398
35.6172
35.5931
35.5675
35.5404
35.5115
35.4808
35.4482
35.4136
35.3769
35.3379
35.2966
35.2527
35.2062
35.1569
35.1046
35.0492
34.9906
34.9285
34.8627
34.7932
34.7196
34.6419
34.5598
34.473
34.3814
34.2848
34.1828
34.0754
33.9623
33.8432
33.7179
33.5862
33.4478
33.3026
33.1502
32.9906
32.8234
32.6484
32.4655
32.2746
32.0753
31.8677
31.6515
31.4266
31.193
30.9506
30.6995
30.4394
30.1706
29.8931
29.6069
29.3121
29.0091
28.6978
28.3786
28.0517
27.7173
27.376
27.0279
26.6734
59.8989
59.8985
59.8977
59.8965
59.8949
59.8929
59.8905
59.8876
59.8843
59.8805
59.8763
59.8716
59.8664
59.8606
59.8543
59.8475
59.84
59.832
59.8232
59.8138
59.8037
59.7928
59.781
59.7685
59.755
59.7406
59.7252
59.7087
59.6911
59.6723
59.6523
59.6309
59.6081
59.5838
59.5579
59.5303
59.501
59.4698
59.4365
59.4011
59.3635
59.3235
59.281
59.2358
59.1878
59.1368
59.0826
59.0251
58.964
58.8992
58.8304
58.7575
58.6801
58.5981
58.5111
58.419
58.3214
58.2181
58.1088
57.9931
57.8708
57.7414
57.6047
57.4603
57.3079
57.1471
56.9775
56.7988
56.6105
56.4122
56.2037
55.9844
55.7541
55.5122
55.2586
54.9927
54.7142
54.4228
54.1182
53.8001
53.4682
53.1222
52.762
52.3874
51.9981
51.5942
51.1756
50.7422
50.2941
49.8314
49.3543
48.8629
48.3575
47.8385
47.3061
46.761
46.2034
45.6341
45.0535
44.4623
83.8591
83.8585
83.8574
83.8557
83.8535
83.8507
83.8473
83.8433
83.8387
83.8334
83.8275
83.8209
83.8137
83.8057
83.7969
83.7873
83.7769
83.7657
83.7535
83.7404
83.7262
83.711
83.6946
83.6771
83.6583
83.6382
83.6167
83.5938
83.5692
83.543
83.515
83.4852
83.4534
83.4195
83.3834
83.345
83.304
83.2605
83.2141
83.1648
83.1123
83.0565
82.9972
82.9341
82.8671
82.796
82.7204
82.6401
82.5549
82.4644
82.3684
82.2666
82.1586
82.0442
81.9228
81.7942
81.6581
81.5138
81.3612
81.1997
81.0288
80.8482
80.6574
80.4557
80.2429
80.0183
79.7814
79.5316
79.2685
78.9916
78.7001
78.3937
78.0717
77.7337
77.3791
77.0073
76.6179
76.2105
75.7845
75.3395
74.8751
74.3911
73.887
73.3627
72.8179
72.2525
71.6664
71.0596
70.4321
69.7842
69.1159
68.4276
67.7196
66.9924
66.2466
65.4827
64.7013
63.9034
63.0897
62.2611
107.82
107.819
107.818
107.815
107.813
107.809
107.805
107.8
107.794
107.787
107.779
107.771
107.762
107.751
107.74
107.728
107.715
107.7
107.685
107.668
107.65
107.63
107.609
107.587
107.563
107.537
107.51
107.48
107.449
107.415
107.38
107.342
107.301
107.257
107.211
107.162
107.11
107.054
106.995
106.932
106.864
106.793
106.717
106.636
106.551
106.46
106.363
106.26
106.151
106.035
105.912
105.782
105.644
105.497
105.342
105.177
105.003
104.818
104.622
104.416
104.197
103.965
103.721
103.462
103.19
102.902
102.598
102.278
101.941
101.585
101.212
100.819
100.406
99.9718
99.5167
99.0396
98.5398
98.0167
97.4697
96.8982
96.3018
95.68
95.0323
94.3585
93.6583
92.9315
92.178
91.3977
90.5907
89.7573
88.8975
88.0119
87.1009
86.1651
85.2051
84.2217
83.2159
82.1885
81.1408
80.0738
131.781
131.78
131.779
131.776
131.772
131.768
131.763
131.757
131.749
131.741
131.732
131.722
131.711
131.698
131.685
131.67
131.654
131.636
131.617
131.597
131.575
131.551
131.526
131.499
131.469
131.438
131.405
131.369
131.331
131.29
131.247
131.2
131.151
131.098
131.042
130.982
130.919
130.851
130.779
130.702
130.621
130.534
130.442
130.344
130.239
130.129
130.011
129.886
129.754
129.613
129.464
129.305
129.137
128.959
128.77
128.57
128.358
128.133
127.895
127.643
127.377
127.096
126.798
126.483
126.151
125.801
125.431
125.041
124.63
124.198
123.742
123.263
122.76
122.231
121.676
121.095
120.485
119.847
119.179
118.482
117.754
116.995
116.204
115.381
114.525
113.637
112.716
111.762
110.776
109.757
108.705
107.622
106.507
105.362
104.187
102.983
101.752
100.494
99.2111
97.9045
155.743
155.742
155.74
155.737
155.733
155.728
155.722
155.715
155.706
155.697
155.686
155.674
155.661
155.646
155.63
155.613
155.594
155.573
155.551
155.527
155.501
155.474
155.444
155.412
155.378
155.341
155.302
155.26
155.215
155.168
155.117
155.062
155.004
154.943
154.877
154.807
154.732
154.652
154.568
154.478
154.382
154.28
154.172
154.057
153.935
153.805
153.667
153.52
153.365
153.199
153.024
152.838
152.641
152.431
152.209
151.974
151.725
151.461
151.182
150.886
150.573
150.242
149.892
149.522
149.132
148.719
148.284
147.826
147.342
146.833
146.297
145.733
145.14
144.517
143.863
143.177
142.459
141.706
140.919
140.096
139.237
138.341
137.407
136.435
135.425
134.376
133.287
132.16
130.994
129.788
128.544
127.263
125.944
124.588
123.198
121.773
120.314
118.825
117.305
115.757
179.707
179.705
179.703
179.7
179.695
179.689
179.682
179.674
179.664
179.653
179.641
179.627
179.612
179.595
179.577
179.557
179.536
179.512
179.487
179.459
179.43
179.398
179.364
179.328
179.289
179.247
179.202
179.154
179.103
179.048
178.99
178.928
178.861
178.791
178.715
178.635
178.55
178.459
178.362
178.259
178.15
178.033
177.909
177.778
177.638
177.489
177.331
177.163
176.985
176.796
176.595
176.382
176.156
175.916
175.662
175.393
175.107
174.805
174.484
174.145
173.787
173.407
173.006
172.582
172.134
171.661
171.161
170.635
170.08
169.495
168.879
168.231
167.549
166.833
166.082
165.293
164.466
163.6
162.694
161.747
160.757
159.725
158.649
157.529
156.364
155.153
153.898
152.597
151.25
149.858
148.422
146.941
145.417
143.85
142.243
140.595
138.908
137.185
135.427
133.637
203.671
203.67
203.667
203.663
203.658
203.651
203.644
203.634
203.623
203.611
203.597
203.582
203.565
203.546
203.526
203.504
203.479
203.453
203.424
203.394
203.361
203.325
203.287
203.246
203.202
203.155
203.105
203.051
202.994
202.933
202.867
202.797
202.723
202.644
202.559
202.469
202.373
202.271
202.163
202.047
201.924
201.794
201.655
201.507
201.35
201.183
201.005
200.817
200.617
200.404
200.179
199.939
199.685
199.416
199.13
198.827
198.506
198.166
197.806
197.425
197.021
196.594
196.143
195.665
195.161
194.628
194.066
193.472
192.847
192.187
191.493
190.762
189.994
189.186
188.337
187.447
186.513
185.535
184.51
183.439
182.32
181.153
179.935
178.667
177.347
175.976
174.554
173.079
171.552
169.973
168.343
166.663
164.933
163.154
161.327
159.455
157.539
155.581
153.583
151.547
227.637
227.635
227.632
227.628
227.622
227.615
227.606
227.596
227.584
227.571
227.555
227.538
227.52
227.499
227.476
227.452
227.425
227.396
227.364
227.331
227.294
227.255
227.213
227.167
227.119
227.067
227.011
226.952
226.889
226.821
226.749
226.672
226.589
226.502
226.408
226.309
226.203
226.09
225.97
225.843
225.707
225.562
225.408
225.245
225.071
224.887
224.69
224.482
224.261
224.026
223.776
223.511
223.23
222.932
222.615
222.28
221.925
221.548
221.149
220.726
220.279
219.806
219.305
218.776
218.216
217.625
217.001
216.342
215.648
214.915
214.144
213.332
212.477
211.579
210.635
209.644
208.604
207.515
206.374
205.18
203.933
202.63
201.271
199.856
198.383
196.851
195.261
193.613
191.905
190.139
188.315
186.434
184.497
182.504
180.458
178.36
176.212
174.017
171.775
169.492
251.604
251.602
251.599
251.595
251.588
251.58
251.571
251.56
251.547
251.532
251.515
251.497
251.476
251.454
251.429
251.402
251.373
251.341
251.307
251.27
251.23
251.187
251.141
251.092
251.039
250.982
250.922
250.857
250.788
250.714
250.635
250.551
250.461
250.366
250.264
250.155
250.04
249.917
249.785
249.646
249.498
249.34
249.172
248.994
248.804
248.602
248.388
248.16
247.918
247.661
247.389
247.099
246.792
246.466
246.12
245.753
245.364
244.952
244.515
244.053
243.563
243.045
242.496
241.916
241.303
240.655
239.971
239.248
238.486
237.682
236.835
235.943
235.005
234.017
232.979
231.889
230.745
229.546
228.29
226.975
225.6
224.164
222.665
221.103
219.476
217.785
216.028
214.205
212.317
210.363
208.345
206.262
204.116
201.909
199.641
197.315
194.933
192.497
190.011
187.477
275.573
275.571
275.568
275.562
275.556
275.547
275.537
275.525
275.511
275.495
275.477
275.457
275.435
275.41
275.384
275.355
275.323
275.289
275.252
275.212
275.169
275.123
275.073
275.02
274.963
274.902
274.836
274.766
274.692
274.612
274.527
274.436
274.339
274.236
274.126
274.008
273.884
273.751
273.609
273.458
273.298
273.128
272.946
272.753
272.548
272.33
272.099
271.852
271.591
271.313
271.018
270.705
270.372
270.019
269.645
269.248
268.827
268.38
267.907
267.406
266.875
266.314
265.719
265.09
264.425
263.721
262.979
262.194
261.366
260.493
259.572
258.602
257.581
256.506
255.376
254.189
252.942
251.635
250.264
248.829
247.328
245.759
244.122
242.414
240.635
238.784
236.86
234.864
232.794
230.652
228.438
226.153
223.797
221.373
218.882
216.326
213.707
211.029
208.295
205.507
299.543
299.541
299.538
299.532
299.525
299.516
299.505
299.492
299.477
299.46
299.441
299.419
299.396
299.37
299.341
299.31
299.276
299.24
299.2
299.157
299.111
299.062
299.009
298.952
298.891
298.825
298.755
298.68
298.601
298.515
298.424
298.327
298.223
298.113
297.995
297.869
297.736
297.593
297.442
297.281
297.109
296.926
296.732
296.525
296.306
296.072
295.824
295.56
295.28
294.982
294.665
294.33
293.973
293.594
293.193
292.767
292.315
291.836
291.328
290.789
290.219
289.615
288.976
288.3
287.584
286.828
286.028
285.183
284.292
283.351
282.358
281.312
280.21
279.05
277.83
276.547
275.2
273.786
272.303
270.75
269.124
267.424
265.649
263.796
261.865
259.855
257.765
255.595
253.344
251.014
248.603
246.114
243.547
240.904
238.187
235.399
232.541
229.617
226.631
223.586
323.515
323.513
323.509
323.504
323.496
323.486
323.475
323.461
323.445
323.427
323.406
323.384
323.359
323.331
323.301
323.268
323.232
323.193
323.151
323.106
323.057
323.005
322.948
322.888
322.823
322.753
322.679
322.6
322.515
322.424
322.327
322.224
322.114
321.997
321.872
321.738
321.597
321.445
321.284
321.113
320.931
320.737
320.53
320.31
320.077
319.829
319.565
319.284
318.986
318.669
318.333
317.975
317.596
317.193
316.765
316.311
315.83
315.32
314.778
314.205
313.597
312.952
312.271
311.549
310.785
309.977
309.123
308.22
307.266
306.26
305.198
304.078
302.897
301.654
300.346
298.97
297.524
296.006
294.413
292.743
290.995
289.165
287.253
285.257
283.175
281.006
278.751
276.407
273.975
271.455
268.847
266.153
263.373
260.51
257.565
254.541
251.441
248.268
245.027
241.72
347.489
347.487
347.483
347.477
347.469
347.459
347.446
347.432
347.415
347.396
347.375
347.351
347.324
347.295
347.263
347.229
347.191
347.15
347.106
347.058
347.007
346.951
346.892
346.828
346.76
346.686
346.608
346.524
346.435
346.339
346.237
346.129
346.013
345.889
345.757
345.616
345.467
345.307
345.137
344.956
344.764
344.559
344.341
344.109
343.863
343.601
343.322
343.026
342.711
342.376
342.021
341.643
341.242
340.816
340.364
339.884
339.375
338.834
338.261
337.654
337.01
336.328
335.605
334.839
334.029
333.172
332.266
331.307
330.294
329.224
328.095
326.904
325.648
324.324
322.93
321.463
319.921
318.301
316.6
314.815
312.946
310.988
308.941
306.803
304.571
302.245
299.824
297.307
294.693
291.983
289.177
286.277
283.282
280.196
277.021
273.759
270.414
266.988
263.487
259.915
371.465
371.463
371.459
371.453
371.444
371.433
371.421
371.405
371.388
371.368
371.345
371.32
371.293
371.262
371.229
371.193
371.153
371.11
371.064
371.014
370.96
370.902
370.84
370.773
370.701
370.625
370.543
370.455
370.361
370.261
370.154
370.04
369.918
369.789
369.651
369.503
369.346
369.179
369.001
368.811
368.61
368.395
368.166
367.923
367.665
367.39
367.097
366.786
366.456
366.104
365.731
365.334
364.913
364.465
363.99
363.485
362.95
362.382
361.779
361.14
360.462
359.743
358.982
358.175
357.321
356.417
355.46
354.449
353.379
352.249
351.055
349.795
348.465
347.064
345.587
344.032
342.396
340.676
338.869
336.973
334.984
332.901
330.721
328.442
326.062
323.579
320.993
318.303
315.507
312.607
309.602
306.494
303.284
299.973
296.564
293.061
289.466
285.784
282.019
278.177
395.443
395.441
395.437
395.43
395.421
395.41
395.397
395.381
395.363
395.342
395.319
395.293
395.264
395.232
395.197
395.16
395.118
395.074
395.025
394.973
394.917
394.857
394.792
394.722
394.648
394.568
394.483
394.391
394.294
394.189
394.078
393.959
393.833
393.697
393.553
393.4
393.236
393.062
392.876
392.679
392.468
392.244
392.006
391.753
391.483
391.196
390.891
390.566
390.221
389.854
389.464
389.05
388.61
388.142
387.645
387.118
386.558
385.964
385.333
384.664
383.954
383.202
382.404
381.558
380.663
379.714
378.71
377.648
376.524
375.336
374.081
372.755
371.355
369.879
368.322
366.682
364.955
363.138
361.229
359.223
357.118
354.911
352.6
350.182
347.655
345.017
342.267
339.404
336.427
333.336
330.131
326.814
323.385
319.847
316.202
312.454
308.606
304.662
300.629
296.51
419.424
419.422
419.417
419.41
419.401
419.39
419.376
419.359
419.34
419.319
419.295
419.268
419.238
419.205
419.169
419.13
419.087
419.041
418.991
418.937
418.879
418.816
418.749
418.677
418.6
418.517
418.429
418.334
418.233
418.125
418.009
417.886
417.755
417.615
417.466
417.306
417.137
416.956
416.764
416.559
416.341
416.108
415.861
415.598
415.318
415.02
414.703
414.366
414.008
413.627
413.222
412.792
412.334
411.848
411.332
410.783
410.201
409.582
408.926
408.229
407.489
406.705
405.874
404.992
404.057
403.067
402.019
400.909
399.734
398.491
397.177
395.789
394.322
392.774
391.141
389.418
387.604
385.694
383.684
381.572
379.353
377.025
374.585
372.03
369.358
366.567
363.654
360.619
357.46
354.178
350.773
347.245
343.596
339.828
335.943
331.946
327.841
323.631
319.323
314.923
443.407
443.404
443.4
443.392
443.383
443.371
443.357
443.34
443.32
443.298
443.273
443.246
443.215
443.181
443.144
443.103
443.06
443.012
442.96
442.905
442.845
442.78
442.711
442.637
442.557
442.472
442.381
442.283
442.179
442.068
441.949
441.822
441.686
441.542
441.388
441.224
441.049
440.862
440.664
440.452
440.227
439.987
439.732
439.46
439.171
438.864
438.536
438.188
437.818
437.424
437.006
436.561
436.087
435.585
435.05
434.482
433.879
433.239
432.558
431.836
431.07
430.256
429.393
428.478
427.507
426.479
425.389
424.234
423.012
421.717
420.348
418.901
417.371
415.754
414.048
412.247
410.349
408.348
406.242
404.026
401.697
399.252
396.686
393.997
391.181
388.238
385.164
381.957
378.618
375.144
371.537
367.797
363.926
359.925
355.798
351.548
347.18
342.698
338.11
333.421
467.392
467.389
467.384
467.377
467.367
467.355
467.341
467.323
467.303
467.28
467.255
467.226
467.195
467.16
467.122
467.081
467.036
466.987
466.934
466.877
466.815
466.749
466.678
466.602
466.52
466.433
466.339
466.239
466.132
466.018
465.896
465.765
465.626
465.478
465.32
465.151
464.972
464.78
464.576
464.359
464.128
463.881
463.619
463.34
463.043
462.727
462.39
462.032
461.651
461.246
460.816
460.357
459.87
459.352
458.802
458.217
457.595
456.935
456.233
455.488
454.697
453.857
452.965
452.019
451.016
449.952
448.823
447.627
446.361
445.019
443.598
442.095
440.505
438.825
437.049
435.174
433.195
431.109
428.91
426.595
424.159
421.598
418.909
416.089
413.133
410.039
406.805
403.429
399.908
396.244
392.434
388.481
384.385
380.148
375.774
371.267
366.632
361.873
356.998
352.013
491.379
491.376
491.372
491.364
491.354
491.342
491.327
491.309
491.289
491.266
491.239
491.21
491.178
491.143
491.104
491.062
491.016
490.966
490.912
490.853
490.791
490.723
490.651
490.573
490.489
490.4
490.304
490.202
490.093
489.976
489.851
489.718
489.576
489.424
489.263
489.09
488.907
488.711
488.502
488.28
488.044
487.792
487.523
487.238
486.934
486.61
486.266
485.899
485.509
485.094
484.653
484.183
483.684
483.153
482.588
481.988
481.35
480.672
479.951
479.186
478.373
477.509
476.592
475.618
474.585
473.488
472.325
471.092
469.784
468.399
466.931
465.376
463.731
461.99
460.15
458.204
456.15
453.981
451.694
449.283
446.744
444.073
441.265
438.316
435.223
431.981
428.589
425.044
421.344
417.488
413.475
409.307
404.984
400.509
395.885
391.115
386.206
381.164
375.995
370.707
515.369
515.366
515.361
515.354
515.344
515.331
515.316
515.298
515.277
515.254
515.227
515.197
515.165
515.129
515.089
515.046
514.999
514.949
514.894
514.834
514.771
514.702
514.628
514.549
514.464
514.373
514.276
514.172
514.061
513.942
513.815
513.679
513.535
513.381
513.216
513.041
512.854
512.654
512.442
512.216
511.975
511.718
511.445
511.154
510.844
510.514
510.163
509.789
509.392
508.968
508.518
508.039
507.529
506.987
506.41
505.797
505.145
504.452
503.715
502.931
502.099
501.214
500.275
499.277
498.217
497.092
495.898
494.631
493.286
491.861
490.35
488.748
487.052
485.256
483.355
481.344
479.219
476.973
474.602
472.1
469.463
466.685
463.761
460.688
457.46
454.074
450.526
446.814
442.935
438.888
434.672
430.288
425.736
421.019
416.14
411.103
405.915
400.581
395.11
389.51
539.361
539.359
539.354
539.346
539.336
539.323
539.307
539.289
539.268
539.244
539.218
539.188
539.154
539.118
539.078
539.034
538.987
538.936
538.88
538.82
538.755
538.686
538.611
538.531
538.445
538.353
538.254
538.149
538.036
537.916
537.787
537.65
537.503
537.347
537.18
537.003
536.813
536.611
536.396
536.166
535.922
535.662
535.384
535.089
534.774
534.44
534.083
533.704
533.3
532.87
532.412
531.925
531.407
530.855
530.269
529.645
528.981
528.275
527.524
526.726
525.877
524.975
524.016
522.997
521.915
520.765
519.543
518.246
516.87
515.409
513.859
512.215
510.473
508.626
506.67
504.599
502.407
500.09
497.64
495.053
492.322
489.442
486.408
483.214
479.856
476.328
472.628
468.751
464.695
460.458
456.038
451.436
446.653
441.69
436.552
431.243
425.769
420.137
414.355
408.433
563.356
563.353
563.348
563.341
563.33
563.317
563.302
563.284
563.262
563.238
563.211
563.181
563.148
563.111
563.07
563.026
562.979
562.927
562.871
562.81
562.745
562.675
562.6
562.519
562.432
562.339
562.24
562.133
562.02
561.898
561.768
561.63
561.482
561.324
561.156
560.976
560.785
560.581
560.363
560.132
559.885
559.622
559.342
559.043
558.725
558.387
558.026
557.642
557.234
556.799
556.335
555.842
555.318
554.759
554.165
553.532
552.859
552.143
551.381
550.571
549.709
548.792
547.818
546.781
545.68
544.508
543.264
541.942
540.537
539.046
537.462
535.781
533.997
532.106
530.1
527.974
525.722
523.338
520.816
518.148
515.33
512.354
509.214
505.905
502.421
498.756
494.906
490.867
486.636
482.209
477.586
472.765
467.749
462.538
457.136
451.548
445.781
439.841
433.739
427.485
587.353
587.351
587.346
587.338
587.328
587.315
587.299
587.281
587.259
587.235
587.208
587.178
587.144
587.107
587.067
587.022
586.974
586.922
586.866
586.805
586.74
586.669
586.594
586.512
586.425
586.332
586.232
586.125
586.011
585.889
585.758
585.619
585.47
585.311
585.142
584.962
584.769
584.564
584.345
584.112
583.864
583.599
